Sample:	
File name:	
Run Date:	
Operator:	Admin
Comment:	'

Instrument
Model:	F-7000 FL Spectrophotometer
Serial Number:	
ROM Version:	

Instrument Parameters
Measurement type:	3-D scan
Data mode:	Fluorescence
EX  Start WL:	200.0 nm
EX  End WL:	500.0 nm
EX Sampling Interval:	5.0 nm
EM  Start WL:	200.0 nm
EM  End WL:	900.0 nm
EM Sampling Interval:	5.0 nm
Scan speed:	60000 nm/min
EX Slit:	5.0 nm
EM Slit:	5.0 nm
PMT Voltage:	750 V
Response:	Auto 
Corrected spectra:	Off
Shutter control:	On
Contour interval:	500.000

Data Points
	200.000	205.000	210.000	215.000	220.000	225.000	230.000	235.000	240.000	245.000	250.000	255.000	260.000	265.000	270.000	275.000	280.000	285.000	290.000	295.000	300.000	305.000	310.000	315.000	320.000	325.000	330.000	335.000	340.000	345.000	350.000	355.000	360.000	365.000	370.000	375.000	380.000	385.000	390.000	395.000	400.000	405.000	410.000	415.000	420.000	425.000	430.000	435.000	440.000	445.000	450.000	455.000	460.000	465.000	470.000	475.000	480.000	485.000	490.000	495.000	500.000
200.0	150.9	162.4	5.166	13.87	1.809	-1.118	-4.701	3.058	3.668	4.246	4.599	4.656	0.366	4.018	6.841	2.077	5.299	3.918	4.783	5.363	4.614	6.197	4.306	3.328	2.883	4.148	4.426	3.852	3.588	5.136	4.722	4.416	4.276	4.174	3.211	2.742	2.322	2.805	2.078	2.112	2.572	1.548	0.874	0.746	0.234	1.154	0.927	1.376	0.746	0.746	0.885	0.683	0.808	1.082	0.535	0.516	0.232	0.560	0.902	-0.034	0.770
205.0	74.24	312.2	267.7	21.61	-15.20	6.345	0.348	-1.338	0.500	-2.414	9.957	0.726	5.476	1.594	5.179	7.014	3.738	4.201	8.007	7.569	3.722	4.597	5.346	4.235	5.157	3.955	4.804	4.314	4.140	6.044	5.267	6.063	4.802	3.322	3.417	3.662	1.506	2.551	1.452	1.509	1.545	2.087	1.374	2.083	1.737	0.401	0.601	0.891	1.095	0.449	1.012	0.376	0.680	0.716	0.410	0.704	0.311	0.121	0.207	0.996	0.318
210.0	-11.52	156.2	633.6	424.9	45.69	-13.86	-6.908	-4.223	5.461	2.736	1.819	0.531	7.464	4.951	5.860	5.644	3.300	4.429	5.439	5.459	4.527	4.760	7.305	4.549	4.415	4.407	4.046	5.389	4.984	5.479	3.188	5.397	4.768	6.348	4.654	3.544	2.401	2.904	1.955	1.768	1.169	1.480	1.134	1.870	3.482	1.992	1.401	0.446	0.808	0.671	0.445	0.785	0.819	0.708	0.403	0.986	0.427	0.156	0.626	-0.050	0.391
215.0	9.737	14.15	290.1	 1530	918.2	48.70	10.91	6.530	1.854	4.194	6.408	8.239	8.231	6.583	6.109	4.620	8.603	6.362	5.192	4.903	6.275	4.509	6.297	5.304	4.632	3.095	6.046	5.969	5.240	4.385	5.559	5.574	5.034	6.177	5.723	5.423	3.533	2.091	2.244	1.698	1.808	1.229	1.443	1.365	1.344	2.722	5.136	4.440	3.128	1.205	1.504	1.553	0.813	0.692	0.591	0.608	1.234	0.495	0.742	0.275	-0.129
220.0	-58.99	-1.402	-16.23	599.9	 2688	 1645	96.73	5.054	3.334	2.760	2.139	-2.318	6.736	8.597	2.410	5.553	8.899	6.754	6.786	5.116	5.956	6.159	6.721	4.609	4.992	4.741	4.802	5.608	6.049	4.561	5.215	6.026	5.836	5.939	5.130	5.506	4.503	2.494	1.898	1.782	1.539	0.659	0.820	0.905	1.183	0.188	2.419	5.320	10.47	10.17	6.070	1.944	0.697	0.693	0.847	0.507	0.153	0.026	1.093	0.600	0.524
225.0	-2.061	-6.237	34.72	26.57	 1085	 5442	 2838	170.1	1.154	10.33	1.657	6.986	4.287	6.005	7.819	7.290	10.26	5.470	7.210	5.280	7.011	5.592	6.233	5.377	6.272	5.291	5.309	6.069	5.318	7.154	5.935	5.802	8.044	7.466	7.130	5.433	5.040	3.071	2.444	1.582	1.114	0.436	0.761	0.685	0.603	0.846	1.220	1.055	2.935	11.83	20.94	25.20	11.51	2.292	0.758	0.985	0.636	0.837	0.293	0.658	-0.191
230.0	-22.64	17.03	-1.536	1.745	58.42	 1974	 9088	 5444	344.0	6.139	3.684	14.09	3.723	6.096	4.886	9.293	8.025	6.108	7.513	7.847	7.634	6.506	4.147	4.182	4.485	5.408	3.277	4.449	5.826	6.864	7.511	7.298	7.970	6.171	6.707	4.856	5.145	4.373	4.199	2.961	1.010	1.393	1.502	0.907	0.089	0.346	0.657	1.628	1.170	1.369	5.570	24.44	50.50	46.27	23.64	5.450	1.170	1.047	0.318	0.781	0.914
235.0	11.42	29.45	32.46	-6.958	7.939	147.9	 3504	9999.9	 9321	522.3	11.59	12.05	9.456	6.250	7.497	13.54	9.407	7.064	11.62	8.493	5.671	6.500	4.471	7.719	7.079	7.520	5.016	6.130	5.540	6.861	8.041	7.378	6.467	7.774	6.411	5.327	4.691	4.606	3.588	3.304	1.980	1.660	1.443	0.844	0.431	0.833	1.288	1.315	1.601	0.480	1.039	2.214	11.58	46.38	89.99	108.8	50.09	9.754	0.708	0.260	0.357
240.0	29.24	41.78	20.07	10.56	13.46	13.35	238.7	 5070	9999.9	9999.9	724.9	15.87	15.22	13.71	10.96	14.48	12.84	10.36	7.944	11.11	5.503	6.449	7.586	7.570	5.818	4.756	6.356	5.626	6.250	6.936	7.148	7.364	6.279	8.607	7.974	8.381	6.370	5.679	4.956	4.311	2.739	2.595	1.594	1.892	0.699	1.131	0.852	1.250	1.405	0.230	0.960	0.915	1.461	3.738	19.03	101.1	201.7	196.9	84.57	10.57	0.909
245.0	-11.04	8.757	26.42	7.991	-16.93	10.23	55.91	353.5	 7240	9999.9	9999.9	 1122	22.36	20.25	19.18	14.50	13.40	14.58	9.095	9.508	7.971	5.714	7.047	7.822	6.249	5.320	4.898	5.170	6.654	6.094	8.557	8.594	7.389	8.060	7.145	7.162	6.858	5.345	4.616	3.955	4.172	2.885	2.294	1.016	1.932	1.707	0.646	1.305	0.548	0.313	0.592	0.469	0.331	0.791	1.732	7.260	46.10	175.6	336.1	332.8	141.8
250.0	-7.887	28.75	-8.839	23.18	10.25	21.03	33.56	33.73	487.2	9999.9	9999.9	9999.9	 1508	25.54	29.32	23.08	17.67	15.53	13.38	10.74	9.393	8.746	7.511	8.401	8.015	8.038	5.354	8.089	5.089	6.966	8.897	7.986	6.538	9.096	8.671	6.514	7.877	5.111	5.364	5.597	4.092	2.262	2.358	1.489	0.985	1.186	0.977	1.042	0.142	0.466	0.749	1.405	0.556	0.629	1.006	1.157	4.067	12.49	69.95	283.1	550.7
255.0	15.28	59.30	-27.72	38.09	3.267	1.936	15.36	22.75	57.63	678.0	9999.9	9999.9	9999.9	 2332	40.13	28.33	25.23	19.27	16.21	13.10	9.130	7.872	9.788	7.523	8.132	6.916	8.071	6.358	6.383	6.411	8.676	8.939	10.29	8.698	8.140	7.655	7.378	6.082	5.956	4.307	4.378	2.761	3.439	2.304	1.566	1.174	1.403	0.644	0.096	1.723	1.628	0.855	0.851	0.796	0.777	0.587	0.936	1.621	5.133	19.97	107.7
260.0	6.267	13.67	22.26	55.45	22.02	13.62	23.23	12.51	33.63	71.55	688.3	9999.9	9999.9	9999.9	 3142	49.54	30.00	24.42	18.27	16.86	11.92	15.33	11.44	11.96	8.647	8.137	8.158	7.427	6.477	6.545	5.750	6.894	8.776	10.48	8.495	9.534	6.938	6.520	6.729	5.301	4.351	4.595	3.611	2.857	0.931	1.891	1.583	0.962	1.599	1.762	1.096	1.036	1.320	0.648	0.416	0.902	0.759	1.614	0.766	2.013	7.227
265.0	75.85	40.25	60.86	25.93	-5.373	39.79	23.84	27.05	21.51	34.44	79.53	696.4	9999.9	9999.9	9999.9	 3377	40.45	33.83	26.32	18.89	14.58	13.50	12.62	12.73	8.935	8.534	9.586	8.125	7.459	9.726	9.267	8.757	9.088	9.853	6.668	9.006	7.326	5.239	4.675	4.714	4.279	3.755	2.279	1.992	2.182	1.680	0.937	1.256	1.399	1.157	0.436	1.063	0.461	0.550	0.589	1.166	0.685	1.093	1.218	1.205	1.326
270.0	76.22	83.67	83.63	31.85	31.29	38.81	32.81	12.42	27.01	35.56	42.58	96.02	754.9	9999.9	9999.9	9999.9	 4096	54.70	31.53	24.01	17.92	15.21	12.06	12.63	11.41	10.57	7.732	7.934	8.087	7.531	8.227	9.327	7.739	9.629	8.175	8.621	9.396	7.078	4.343	5.112	3.413	3.806	3.794	2.817	1.404	2.282	1.082	1.269	1.413	1.679	0.839	0.727	1.113	1.102	0.795	0.690	1.112	0.994	1.124	1.635	0.870
275.0	77.97	38.61	77.90	34.09	29.97	45.63	25.26	29.88	28.26	32.56	40.77	49.61	106.8	776.2	9999.9	9999.9	9999.9	 4421	54.36	39.07	24.69	20.11	18.22	14.14	13.72	12.78	9.230	9.927	10.24	9.067	9.858	7.866	9.485	9.761	8.726	7.897	7.368	7.536	6.969	5.246	4.132	4.950	3.173	3.546	2.930	2.418	1.863	2.492	2.043	1.751	1.893	1.500	0.591	1.116	1.101	1.241	0.968	1.129	1.473	1.082	1.218
280.0	88.03	65.34	116.9	81.69	26.96	40.44	25.35	43.75	45.13	24.54	34.41	47.46	59.68	131.7	809.5	9999.9	9999.9	9999.9	 4166	53.87	37.82	29.20	24.20	16.91	16.99	13.37	12.43	12.06	10.87	8.719	8.926	8.479	10.04	11.49	9.274	8.381	7.487	7.836	7.662	5.256	4.135	3.410	3.826	3.845	2.761	2.377	2.307	2.641	1.511	2.316	0.895	0.964	1.513	1.037	0.956	1.062	1.148	1.564	0.934	1.058	1.118
285.0	43.91	115.0	93.81	56.88	55.49	32.61	64.47	53.81	42.77	39.37	52.57	74.09	99.31	141.2	227.3	955.4	9999.9	9999.9	9999.9	 4515	56.98	38.08	29.35	25.04	18.38	13.88	14.26	10.08	9.778	10.08	9.651	7.613	11.34	10.40	9.990	8.653	8.650	6.133	7.384	5.695	5.676	5.405	3.786	2.713	2.393	1.865	3.113	2.165	1.150	2.428	2.031	1.904	0.835	1.994	0.808	1.181	2.018	1.745	1.083	0.966	1.107
290.0	131.7	121.3	120.7	46.18	76.98	122.3	122.0	93.40	81.26	73.95	94.19	144.1	200.4	301.4	459.5	582.8	 1328	9999.9	9999.9	9999.9	 4828	64.50	39.60	30.90	21.17	17.22	16.10	13.55	11.49	10.62	11.64	10.06	11.40	10.03	11.62	9.441	9.060	8.114	6.654	7.306	5.544	5.992	3.715	3.043	3.522	1.113	2.044	2.941	2.138	1.534	2.967	1.161	2.159	1.782	2.670	1.673	1.575	1.471	1.900	1.876	1.757
295.0	229.4	81.84	167.7	109.7	151.7	120.9	180.3	213.9	149.3	119.0	207.1	291.0	475.9	708.2	 1038	 1230	 1404	 1934	9999.9	9999.9	9999.9	 6285	70.13	47.74	27.91	25.22	20.63	17.48	14.55	12.10	13.63	12.59	12.55	11.51	10.30	7.930	7.294	7.943	6.976	5.922	5.916	5.669	5.218	3.208	3.625	3.450	3.078	2.518	2.480	2.459	1.892	3.788	2.118	1.751	1.631	2.231	2.016	2.094	3.198	3.185	2.333
300.0	111.9	212.8	149.9	139.3	214.5	260.8	302.3	337.9	281.5	254.6	354.6	611.0	962.3	 1416	 1903	 2330	 2632	 2526	 2806	9999.9	9999.9	9999.9	 6343	67.63	43.43	34.29	25.24	21.18	16.39	16.82	13.93	12.23	10.89	11.69	10.24	9.650	10.04	8.473	7.044	5.587	7.486	6.317	5.618	3.436	3.688	3.049	3.049	3.019	2.994	3.098	3.378	3.506	3.291	3.564	1.897	2.310	2.546	3.485	3.214	2.898	4.937
305.0	274.1	202.1	177.7	224.1	310.7	331.5	464.4	513.4	440.4	455.7	595.1	 1057	 1588	 2274	 3032	 3709	 4082	 4164	 3966	 3759	9999.9	9999.9	9999.9	 6959	68.21	44.02	32.56	29.21	23.69	16.58	17.36	15.30	14.23	12.70	12.91	8.789	9.703	7.754	8.331	7.825	5.523	5.798	6.064	6.336	4.937	4.007	3.264	2.178	3.469	3.468	2.953	3.450	4.352	3.313	4.400	3.843	4.008	3.934	3.867	5.163	7.035
310.0	233.0	351.7	198.9	246.6	329.8	469.7	613.9	645.4	573.1	631.8	859.6	 1384	 2160	 3121	 4128	 5055	 5526	 5761	 5799	 5068	 3881	9999.9	9999.9	9999.9	 7607	71.73	51.68	36.77	25.16	22.59	21.12	16.66	14.95	16.00	14.65	12.97	10.90	8.364	8.041	7.998	6.158	9.033	6.194	5.761	5.552	6.041	4.208	2.297	3.229	4.780	3.653	3.832	5.178	5.142	5.003	5.663	6.245	5.818	5.809	5.423	9.548
315.0	239.5	234.8	302.9	272.3	352.9	497.4	730.2	724.8	712.1	739.0	 1099	 1690	 2695	 3820	 5070	 6159	 6761	 7167	 7339	 6728	 4516	 2519	9999.9	9999.9	9999.9	 8368	67.13	45.42	34.25	26.68	26.34	23.31	18.52	16.76	15.35	11.94	9.481	8.178	8.750	8.333	7.457	7.623	5.880	6.350	6.498	7.705	5.989	7.616	3.939	4.241	4.595	4.877	5.297	5.841	5.966	6.691	7.084	7.697	7.886	8.705	12.74
320.0	196.5	236.0	192.0	268.9	372.2	533.4	757.9	777.0	763.1	825.9	 1169	 1880	 2988	 4098	 5501	 6526	 7333	 7841	 8261	 7655	 5328	 2308	 1346	9999.9	9999.9	9999.9	 6604	67.93	51.09	36.65	29.52	25.43	22.25	17.86	15.37	13.36	12.22	9.758	9.216	8.075	7.790	8.016	7.083	7.244	5.864	6.848	7.152	7.044	5.517	5.653	3.994	4.158	5.600	5.050	6.305	7.390	6.597	6.948	7.900	11.01	13.30
325.0	282.3	217.9	271.2	249.9	385.3	550.5	779.4	799.6	763.7	873.4	 1234	 1893	 2977	 4195	 5515	 6587	 7389	 7889	 8502	 7879	 5624	 2507	766.2	916.1	9999.9	9999.9	9999.9	 6867	65.12	47.48	37.20	28.70	26.02	22.12	18.03	14.07	12.32	9.466	8.406	8.478	7.351	8.127	6.818	5.918	5.966	5.303	7.166	8.096	6.628	5.216	3.982	4.375	5.167	5.842	6.100	7.664	8.009	7.640	8.105	9.355	12.52
330.0	356.4	253.9	283.3	275.4	364.2	543.6	696.3	750.1	718.2	852.1	 1230	 1904	 2810	 4071	 5316	 6312	 7148	 7653	 8241	 7728	 5554	 2557	746.3	246.7	832.4	9999.9	9999.9	9999.9	 5454	61.20	48.13	39.10	31.47	23.97	20.09	15.99	14.64	12.16	10.19	7.698	7.035	7.094	6.854	7.164	4.941	5.899	7.169	6.416	5.999	7.147	6.297	4.741	4.977	5.794	4.845	6.421	7.364	7.646	7.378	9.630	12.21
335.0	229.4	249.3	248.3	311.1	434.1	509.7	620.9	702.8	679.4	798.4	 1068	 1671	 2603	 3704	 4905	 5855	 6553	 7089	 7598	 7244	 5212	 2477	734.8	194.6	133.1	754.7	9999.9	9999.9	9999.9	 5853	63.28	53.34	40.12	30.33	26.91	19.12	14.90	11.50	10.99	8.496	8.108	8.517	5.076	5.786	5.599	3.509	4.994	5.378	6.177	6.654	5.667	6.019	4.964	4.791	5.458	5.604	5.122	8.125	7.205	8.093	10.99
340.0	196.3	219.9	256.9	314.7	362.6	409.5	602.7	614.7	588.0	695.3	 1001	 1547	 2318	 3285	 4357	 5182	 5889	 6293	 6849	 6429	 4772	 2285	699.0	182.4	74.41	106.0	768.6	9999.9	9999.9	9999.9	 6495	66.82	54.81	39.21	30.60	22.11	17.16	13.85	11.07	9.122	8.308	7.466	6.221	5.077	5.789	3.648	4.876	4.881	5.963	6.649	7.402	7.905	5.149	3.702	5.185	4.862	5.489	6.952	6.575	9.577	10.73
345.0	265.4	224.1	205.4	205.9	231.0	412.2	503.4	560.6	456.5	560.4	853.4	 1326	 2011	 2864	 3788	 4404	 4984	 5453	 5964	 5561	 4146	 2042	641.0	157.3	63.24	51.87	99.89	760.2	9999.9	9999.9	9999.9	 5728	64.75	53.55	39.08	27.95	20.44	14.37	13.04	9.197	9.821	6.100	5.963	6.429	5.617	4.114	4.379	4.912	6.228	6.303	5.764	7.338	6.685	5.968	4.058	4.608	4.214	5.984	7.250	7.331	8.365
350.0	196.2	200.2	139.7	143.1	271.6	318.6	430.8	436.6	421.2	536.6	712.8	 1121	 1735	 2477	 3146	 3760	 4239	 4600	 5039	 4772	 3513	 1781	580.8	162.4	64.96	44.95	47.23	98.16	772.4	9999.9	9999.9	9999.9	 4470	61.86	51.80	38.75	23.31	19.45	13.62	11.20	9.197	6.931	6.834	5.874	4.707	4.019	4.386	4.157	4.626	5.329	5.155	6.873	5.420	5.393	6.326	5.536	3.527	5.274	5.816	6.103	7.785
355.0	258.7	222.1	191.0	208.5	163.6	278.5	381.5	423.6	393.7	426.7	644.3	958.8	 1414	 2083	 2651	 3183	 3522	 3862	 4172	 4013	 3023	 1559	522.1	156.3	64.84	52.41	52.52	55.84	100.7	729.7	9999.9	9999.9	9999.9	 4521	62.97	48.78	33.79	23.25	14.20	12.19	9.068	8.575	7.061	5.021	5.346	5.143	5.231	4.654	3.990	4.003	5.200	5.876	5.773	5.071	6.508	5.917	4.791	4.093	4.254	5.435	6.622
360.0	199.8	143.5	194.4	203.0	183.9	228.7	285.2	300.8	309.7	340.2	459.4	766.7	 1209	 1656	 2173	 2601	 2971	 3189	 3462	 3373	 2532	 1330	457.4	142.5	79.79	60.94	61.12	56.10	55.90	102.1	731.4	9999.9	9999.9	9999.9	 4072	57.14	42.15	30.95	21.50	14.32	11.40	8.677	6.482	5.833	4.493	5.245	5.363	5.244	5.210	5.837	4.833	4.755	5.744	5.441	5.604	7.391	5.227	4.133	4.027	4.996	5.323
365.0	280.9	182.9	134.6	165.8	175.7	235.5	265.8	279.3	233.4	291.0	424.4	653.5	985.6	 1380	 1745	 2109	 2355	 2506	 2790	 2703	 2081	 1108	411.6	145.5	82.83	71.09	74.05	67.25	58.10	56.78	93.74	738.0	9999.9	9999.9	9999.9	 3993	51.46	34.58	27.12	18.79	12.37	11.00	7.362	5.718	5.953	5.556	4.353	4.619	4.000	4.404	3.753	4.272	4.304	4.860	5.510	6.591	5.801	4.724	3.322	3.759	5.370
370.0	199.0	111.9	142.6	146.4	156.7	199.6	210.1	240.7	199.3	223.6	303.5	504.0	775.6	 1052	 1403	 1685	 1823	 2040	 2246	 2125	 1660	896.0	344.9	145.6	97.12	87.55	87.56	71.79	63.59	54.49	50.49	91.63	711.3	9999.9	9999.9	9999.9	 3265	42.53	37.29	23.25	14.82	11.84	9.649	6.790	6.629	5.975	4.454	4.095	4.902	3.000	3.532	5.033	4.283	4.678	4.627	5.800	5.374	5.843	4.083	2.855	4.034
375.0	233.5	177.6	105.2	143.2	119.2	121.4	154.0	156.2	172.1	195.7	251.5	436.4	607.5	792.3	 1123	 1306	 1436	 1543	 1686	 1619	 1289	696.9	288.8	131.3	103.4	92.03	94.10	79.00	64.43	53.32	39.71	40.38	83.81	708.1	9999.9	9999.9	9999.9	 2857	40.15	26.95	22.28	15.75	10.17	8.308	6.009	5.308	4.721	4.286	3.163	4.334	4.310	3.956	3.765	3.831	2.771	5.424	5.369	4.798	5.663	4.834	3.757
380.0	184.8	145.2	140.5	69.23	118.3	99.72	123.7	115.3	149.6	150.6	200.5	297.5	452.4	645.8	837.2	987.2	 1098	 1171	 1283	 1221	951.8	530.3	219.0	123.4	94.96	97.08	88.22	82.57	65.67	52.84	37.23	31.52	32.48	76.77	705.5	9999.9	9999.9	9999.9	 2383	34.21	26.76	18.22	12.06	8.917	6.652	5.583	5.545	4.429	2.887	4.128	3.524	4.140	3.013	2.547	3.905	3.146	4.071	4.684	6.191	4.557	5.176
385.0	158.4	57.91	85.37	61.31	114.4	105.4	103.7	100.1	100.0	124.7	155.2	217.2	324.4	467.3	636.9	712.6	792.3	880.6	938.8	890.7	684.9	399.4	176.4	98.85	90.32	87.20	85.17	73.72	59.80	47.25	36.34	28.40	27.62	28.18	72.86	687.3	9999.9	9999.9	9999.9	 1986	29.91	21.00	15.77	10.30	7.276	6.181	5.298	4.367	3.167	4.167	3.410	3.372	2.463	2.967	2.782	3.026	2.904	4.031	4.655	3.670	6.029
390.0	325.2	117.2	125.3	54.33	69.34	78.24	96.90	74.81	70.04	81.05	98.63	172.6	291.6	343.6	455.0	559.2	602.4	649.4	688.0	644.5	486.2	279.3	144.4	90.81	82.76	74.62	75.09	64.12	52.74	44.38	35.71	29.07	21.67	21.40	27.30	71.81	698.7	9999.9	9999.9	9999.9	 1857	24.79	17.39	13.18	8.365	6.231	4.419	4.218	4.957	3.114	2.935	3.283	3.079	2.754	3.217	2.882	2.560	2.366	4.139	4.051	5.740
395.0	734.2	110.0	57.63	68.10	61.21	72.91	52.95	68.99	61.36	65.04	71.75	122.8	192.1	255.1	356.6	397.2	445.2	481.5	490.0	455.2	345.1	187.5	110.8	82.45	72.00	69.23	64.29	55.64	49.95	34.69	30.30	23.31	21.15	21.08	21.14	26.29	66.76	674.6	9999.9	9999.9	9999.9	 1593	23.65	15.61	13.00	7.920	6.491	5.059	4.890	3.343	3.195	3.875	3.162	3.114	2.313	2.805	3.205	2.910	2.971	3.742	4.503
400.0	856.3	437.3	79.64	86.05	31.41	46.90	45.34	44.76	51.28	41.61	67.33	83.00	144.1	177.1	228.0	281.9	321.7	357.0	347.2	324.0	245.5	140.7	76.36	67.63	61.14	65.05	53.20	44.28	36.55	28.88	25.08	17.99	21.98	22.54	16.32	17.58	20.82	64.34	670.0	9999.9	9999.9	9999.9	 1348	19.12	13.67	9.908	5.538	4.917	3.945	2.700	3.421	3.596	3.279	1.994	2.592	1.898	2.570	2.297	2.053	2.828	3.717
405.0	388.3	964.1	83.79	49.87	27.34	40.64	17.10	35.29	38.57	37.20	50.85	70.98	94.34	113.1	181.9	216.2	235.4	259.4	273.2	231.3	169.4	105.4	68.98	53.33	56.58	55.97	52.55	36.77	26.53	24.03	18.31	15.35	14.23	20.46	18.12	14.98	17.54	18.57	58.54	671.0	9999.9	9999.9	9999.9	995.0	16.36	13.24	9.191	7.212	4.792	3.917	4.143	3.507	2.524	2.380	2.540	2.371	2.335	1.847	2.674	2.376	3.011
410.0	105.9	 1183	493.2	72.51	23.66	31.30	37.51	47.58	24.31	36.32	38.79	43.21	62.48	97.76	130.9	163.1	171.6	190.6	181.5	170.4	120.2	82.84	55.31	52.49	47.64	46.20	45.93	37.48	27.00	20.40	16.27	13.56	12.99	15.52	16.43	17.95	11.83	13.71	16.82	56.66	659.3	9999.9	9999.9	9999.9	933.2	14.57	11.75	9.089	6.362	4.825	4.797	2.617	2.458	2.549	2.052	2.035	1.934	1.700	2.943	2.166	2.793
415.0	-6.798	707.9	 1424	96.85	13.63	24.17	37.95	37.25	20.74	25.41	26.71	49.36	64.32	92.23	105.9	122.0	133.2	138.7	129.5	122.9	94.56	68.35	49.29	51.21	51.82	47.60	45.81	39.76	30.10	19.78	16.67	13.79	14.05	14.04	12.45	13.44	13.18	11.31	10.66	12.87	53.76	650.7	9999.9	9999.9	9999.9	891.8	14.64	9.712	7.830	5.394	3.822	3.410	3.887	2.451	2.128	3.013	1.994	1.877	2.386	2.116	1.771
420.0	80.89	143.5	 2081	699.3	3.748	37.57	39.25	10.99	23.72	20.82	20.78	31.29	40.25	50.27	91.68	90.40	116.3	108.9	110.4	102.5	81.88	68.29	56.77	59.43	56.70	51.82	44.43	40.53	34.24	23.31	20.26	12.61	12.76	12.56	9.688	11.24	12.46	9.895	8.696	9.930	13.10	53.00	653.5	9999.9	9999.9	9999.9	795.9	13.37	9.312	7.087	6.155	3.914	4.117	2.914	1.880	2.719	2.025	2.139	1.997	2.307	2.205
425.0	60.82	77.12	 1191	 2274	82.14	34.64	13.10	22.20	17.46	23.55	22.80	29.91	36.76	58.02	74.20	82.36	91.48	89.35	96.35	79.52	66.09	52.67	51.21	55.64	57.03	59.06	52.07	35.66	36.36	28.87	23.19	16.37	11.38	12.10	9.591	9.443	9.801	10.27	8.894	8.383	8.200	11.77	50.68	649.9	9999.9	9999.9	9999.9	765.3	12.50	8.970	7.114	4.143	2.920	3.017	2.052	2.347	2.184	1.736	1.144	2.337	1.495
430.0	41.71	36.54	229.9	 2856	935.7	24.30	5.367	10.61	12.22	10.02	16.92	32.52	38.89	51.42	64.86	70.78	74.51	77.75	82.53	70.55	59.56	47.40	44.00	59.12	64.87	66.44	57.13	47.68	39.99	31.47	27.27	19.49	14.31	12.75	11.54	9.322	8.924	7.992	8.186	7.985	5.949	7.331	11.47	52.52	656.1	 9431	9999.9	9999.9	583.7	12.67	7.902	6.806	4.071	4.111	3.794	2.191	2.483	3.088	1.909	2.181	1.553
435.0	13.85	39.54	45.68	 1747	 3357	144.2	20.51	16.71	9.949	21.70	12.35	20.18	26.25	44.58	50.57	55.20	64.04	72.48	70.86	63.51	56.94	49.60	41.86	47.31	59.54	66.54	61.03	57.69	43.87	34.46	28.28	22.76	18.64	15.39	13.96	9.796	9.010	7.799	7.003	9.121	7.579	6.759	5.944	10.09	50.64	609.0	 9391	9999.9	9999.9	933.8	12.36	9.055	5.608	4.059	3.308	2.451	2.266	2.044	2.086	1.409	1.282
440.0	24.87	83.23	53.95	298.1	 4678	 1200	35.18	18.29	10.69	12.19	19.73	19.12	22.93	27.91	32.66	44.01	52.18	54.69	58.93	53.03	46.97	40.37	38.42	39.13	51.64	66.81	73.42	63.75	53.27	41.25	29.47	27.07	23.78	19.84	14.34	10.38	7.426	6.820	6.191	7.857	7.279	6.300	5.135	6.100	10.57	47.58	603.0	 9472	9999.9	9999.9	846.0	10.82	7.966	6.080	4.576	3.724	2.498	2.450	2.184	1.787	1.755
445.0	46.92	33.00	51.19	64.55	 2599	 4495	119.9	23.90	13.81	11.19	17.21	16.43	28.09	30.64	33.64	41.00	43.63	39.16	46.25	47.51	41.13	36.32	36.24	37.56	48.64	56.05	67.71	70.48	58.76	56.61	39.84	29.30	25.36	21.75	18.86	14.86	9.661	6.634	5.709	3.897	5.271	6.493	6.125	4.408	5.924	11.09	46.37	613.1	 8516	9999.9	9999.9	764.4	9.324	8.289	5.637	3.695	2.291	1.608	1.995	1.702	1.158
450.0	98.04	-8.307	42.31	60.74	489.7	 6728	 1527	13.92	5.038	8.212	23.88	12.82	21.10	28.02	33.74	35.69	35.50	42.09	48.03	40.52	34.19	30.02	30.85	30.83	39.24	42.75	52.98	70.25	65.29	59.10	50.22	40.76	29.19	23.50	20.16	17.03	12.83	8.380	6.070	5.639	5.144	5.707	7.441	4.944	4.983	5.581	11.06	47.57	563.2	 9120	9999.9	9999.9	595.4	9.305	6.948	4.880	3.248	3.251	2.242	2.981	2.901
455.0	21.59	56.75	30.99	48.43	13.70	 4152	 5901	155.2	17.52	7.452	19.48	21.14	29.98	20.50	28.92	31.34	36.40	41.21	39.83	38.00	35.35	33.96	30.48	30.73	31.31	38.34	41.01	55.45	65.80	65.06	59.25	50.57	36.24	25.89	23.15	19.07	13.86	9.403	5.284	4.548	6.548	4.128	4.112	5.910	5.145	5.645	6.081	10.04	45.19	586.3	 8086	9999.9	9999.9	926.5	9.216	6.679	4.779	3.869	3.672	2.159	1.992
460.0	85.96	96.95	66.67	64.43	14.71	716.0	 9060	 2104	19.85	13.88	10.36	15.88	14.42	21.03	25.91	31.56	34.55	27.93	33.78	33.53	34.68	26.70	24.37	26.68	26.24	28.13	35.14	35.97	48.47	61.53	65.14	55.91	45.91	33.57	28.26	19.84	16.01	13.11	8.312	6.237	3.838	4.477	3.915	5.305	5.463	3.851	5.456	5.067	9.024	47.36	527.2	 8066	9999.9	9999.9	770.5	8.854	7.445	4.281	4.141	2.351	2.409
465.0	6.780	44.56	22.60	67.07	42.13	59.23	 5327	 7952	207.8	17.64	17.48	15.61	22.34	22.24	21.81	26.42	30.18	31.72	34.01	27.74	29.93	26.53	24.04	24.92	24.84	27.11	26.96	30.57	35.49	51.40	57.33	65.77	54.77	49.57	30.81	25.05	17.33	12.28	9.168	6.278	4.685	3.612	3.934	3.893	4.631	5.452	4.210	4.494	7.029	9.363	42.12	518.3	 8021	9999.9	9999.9	784.5	9.505	6.013	4.324	3.386	3.191
470.0	69.32	34.23	57.28	40.19	35.74	7.638	 1010	9999.9	 2974	14.89	15.21	16.04	15.83	19.53	24.61	27.05	27.35	24.96	24.18	27.06	27.02	24.83	20.65	20.60	24.23	22.03	23.23	26.31	29.26	39.28	45.32	62.15	62.23	55.33	46.96	30.68	20.02	16.28	12.02	9.801	7.753	4.802	3.774	3.595	3.452	3.610	6.068	5.381	5.319	5.236	9.039	42.87	520.2	 7762	9999.9	9999.9	565.3	9.047	5.597	5.039	3.475
475.0	53.26	48.38	70.70	12.02	6.315	11.18	83.15	 7061	9999.9	254.3	13.18	15.22	16.11	18.75	21.44	26.23	28.67	21.73	28.60	21.97	19.96	20.87	17.26	20.32	18.52	18.23	22.25	17.94	19.35	26.17	29.94	50.67	64.33	62.40	57.99	42.67	26.71	17.47	10.73	9.058	7.796	4.732	3.863	1.965	3.123	3.240	3.910	5.333	5.512	4.452	5.190	8.222	39.98	505.5	 6680	9999.9	9999.9	722.5	7.835	5.773	4.361
480.0	35.35	8.938	10.54	50.83	5.174	19.29	28.84	 1282	9999.9	 3835	19.02	19.37	19.46	17.22	25.07	15.74	22.87	20.03	26.99	19.70	19.68	19.01	14.54	21.89	18.59	17.83	16.31	19.12	17.44	20.72	23.63	33.25	45.64	59.07	61.97	51.55	35.41	25.00	14.04	11.40	8.071	6.559	4.274	2.411	2.121	3.133	2.475	3.849	5.663	3.600	4.874	4.861	7.906	38.42	430.4	 6731	9999.9	9999.9	514.0	7.042	6.233
485.0	8.352	50.47	2.343	12.34	22.42	17.11	19.02	88.22	 8312	9999.9	330.1	11.53	17.79	17.38	18.60	23.14	21.61	16.46	19.98	20.30	22.56	17.03	17.49	16.73	18.29	16.11	14.73	15.72	12.03	16.43	18.54	22.51	32.51	48.03	60.02	60.93	45.58	30.41	20.68	12.76	9.425	8.222	6.808	3.524	2.087	2.071	3.345	2.810	4.175	4.922	5.012	3.851	4.436	7.337	34.26	447.0	 7120	9999.9	9999.9	519.8	6.934
490.0	-6.218	5.031	-0.601	35.14	8.661	31.91	5.997	18.59	 1597	9999.9	 4426	28.36	19.47	22.65	17.38	17.19	20.60	20.48	16.15	18.25	20.10	18.07	19.77	18.95	15.50	15.80	15.99	14.86	14.18	12.14	15.54	17.86	24.72	32.92	42.87	56.34	53.32	39.62	28.78	19.07	11.51	10.32	6.831	4.420	2.751	2.139	2.450	2.845	2.867	3.755	5.416	4.899	3.967	4.150	7.819	36.05	473.1	 6388	9999.9	9999.9	437.6
495.0	-8.235	21.99	7.612	37.88	-19.05	15.80	6.905	10.05	120.3	9999.9	9999.9	436.8	16.12	25.25	15.76	21.67	21.89	18.60	14.17	16.73	18.90	16.45	17.17	15.37	14.87	15.67	13.79	11.24	13.46	11.01	11.90	13.74	19.43	22.04	30.95	41.00	51.98	48.37	35.60	27.45	14.65	10.00	7.836	4.982	5.237	2.483	3.355	2.788	3.144	3.439	4.873	5.493	3.886	4.997	5.002	7.025	36.09	411.4	 6705	9999.9	9999.9
500.0	41.64	-9.173	-18.80	14.97	-9.038	7.470	2.271	6.323	21.85	 1909	9999.9	 5678	20.50	21.04	25.31	16.91	21.59	16.52	19.16	14.05	18.66	14.88	18.91	15.01	15.32	14.77	14.46	13.29	12.65	11.98	10.82	11.89	14.06	17.01	21.40	26.95	39.86	46.13	42.86	34.46	24.20	15.43	9.032	7.911	4.926	4.538	3.277	2.591	3.177	4.028	3.212	5.036	5.737	4.464	4.857	4.699	7.527	32.01	435.3	 5881	9999.9
505.0	28.54	42.58	22.28	0.224	47.92	23.24	15.92	13.10	7.053	141.4	9999.9	9999.9	521.5	27.58	25.72	17.56	23.16	17.79	19.91	13.96	18.31	16.01	14.81	13.25	16.85	11.80	10.17	12.22	13.88	10.38	12.10	9.844	12.85	11.63	14.28	19.20	27.00	31.77	42.65	40.81	32.42	23.36	15.37	8.411	5.559	4.219	4.199	3.043	4.223	3.137	4.152	3.655	4.492	5.420	4.685	4.790	4.966	6.428	33.02	385.9	 5787
510.0	37.57	33.28	-5.297	37.94	10.71	25.62	7.845	9.965	12.38	21.30	 2145	9999.9	 7114	35.28	25.18	20.62	18.58	16.58	18.80	17.36	17.01	16.51	16.84	12.22	12.83	12.80	11.34	9.355	12.74	9.484	10.52	7.824	9.412	9.723	12.25	14.64	17.86	21.53	30.12	38.60	35.17	28.82	23.03	12.22	8.155	6.937	4.569	4.367	3.275	2.479	3.867	3.560	4.565	4.282	6.660	4.280	3.962	4.206	6.674	30.86	371.8
515.0	-8.163	-6.246	23.95	71.06	29.55	34.87	17.42	14.37	10.70	17.45	165.2	9999.9	9999.9	651.3	37.82	21.63	18.94	15.33	16.83	19.94	16.93	16.75	16.47	13.56	13.52	10.93	13.29	13.24	10.03	9.816	10.33	7.968	10.20	8.732	10.15	10.62	12.44	15.17	16.81	25.33	37.24	33.75	28.08	19.85	12.53	8.192	7.258	5.361	4.978	3.077	3.973	3.365	2.776	3.147	4.434	4.624	4.453	3.518	3.661	5.399	28.32
520.0	16.01	103.7	16.97	36.19	13.32	4.856	7.057	-1.499	10.62	5.665	22.68	 2378	9999.9	 8595	39.66	25.42	19.31	17.64	14.36	14.44	14.37	14.21	16.51	15.93	11.42	12.11	9.691	10.30	10.31	8.530	7.724	6.456	9.076	10.23	8.315	9.412	8.531	10.34	12.03	15.91	23.03	34.81	32.99	25.11	18.03	10.22	7.512	5.663	6.021	4.321	3.888	4.127	3.537	3.588	3.416	4.007	3.942	2.920	4.190	2.274	5.864
525.0	-14.59	30.71	15.64	18.10	-8.902	21.56	2.205	5.902	7.188	12.86	20.04	176.7	9999.9	9999.9	704.3	30.49	24.58	21.54	17.06	15.09	12.43	16.10	13.57	17.27	16.40	13.66	9.808	10.07	7.716	8.113	7.809	6.925	8.383	7.340	7.597	9.377	4.979	5.833	7.339	11.76	15.71	21.98	31.25	32.05	26.28	16.96	11.58	8.882	5.431	5.036	4.175	3.604	3.468	2.748	2.993	2.416	2.842	4.347	2.991	2.426	2.717
530.0	33.51	39.23	56.27	16.97	21.19	27.72	5.022	4.933	16.10	11.79	19.02	24.77	 2680	9999.9	 9806	34.16	26.41	19.92	15.96	14.94	14.51	16.17	18.35	15.33	13.64	13.99	11.57	11.24	6.757	8.408	6.974	6.480	5.711	6.542	5.329	7.398	5.654	5.752	5.744	7.197	9.602	12.59	20.83	26.87	30.98	23.73	17.72	12.03	8.040	6.275	4.824	4.996	3.389	2.989	3.007	2.975	2.544	2.439	4.314	2.694	1.988
535.0	55.69	39.04	9.082	9.187	17.56	25.24	5.999	1.071	3.633	13.00	7.981	17.23	210.3	9999.9	9999.9	798.8	30.24	25.85	16.47	18.41	14.31	12.79	15.67	17.56	13.59	13.51	12.02	9.415	6.372	6.222	8.350	6.784	6.300	5.856	6.562	4.533	4.210	3.843	3.600	4.899	5.100	7.640	12.02	17.88	29.29	27.57	20.58	19.34	10.81	7.005	6.202	4.825	4.621	2.145	2.509	1.885	2.011	1.578	2.568	2.981	3.027
540.0	-21.97	-3.765	-5.216	8.488	15.56	-8.771	3.414	9.651	2.701	9.972	8.216	17.61	40.09	 3007	9999.9	9999.9	38.79	30.25	18.49	20.05	13.00	14.49	14.44	16.88	17.08	15.58	13.31	11.72	11.00	7.065	6.773	7.865	5.731	5.483	5.395	5.291	4.596	3.642	4.511	3.421	4.522	5.432	8.149	12.47	16.08	29.03	27.57	23.21	18.60	10.53	6.383	4.997	4.617	2.841	3.400	1.121	2.088	1.779	1.840	2.843	2.704
545.0	-27.91	15.33	16.70	5.546	29.39	-0.168	11.70	1.363	4.696	7.530	11.52	12.19	22.84	235.3	9999.9	9999.9	795.4	32.50	22.88	16.60	15.06	13.15	12.36	12.42	13.74	15.77	14.58	11.23	9.453	10.47	8.172	7.600	6.162	7.111	5.702	4.815	4.569	4.691	3.657	2.806	3.348	4.335	5.408	7.434	10.52	14.74	25.66	25.94	22.70	15.74	11.29	7.298	4.687	4.089	3.143	2.131	0.993	1.613	1.633	1.451	2.782
550.0	25.40	47.75	-8.551	4.863	13.06	32.52	17.97	2.995	12.13	13.02	7.557	11.73	14.13	41.24	 2821	9999.9	9999.9	49.44	21.12	20.21	16.06	14.89	13.23	11.86	13.50	17.56	16.45	11.91	12.20	12.74	9.596	7.362	6.630	4.137	7.112	5.451	5.269	4.100	3.379	1.804	2.062	2.490	3.520	4.186	6.446	10.75	15.16	26.59	28.47	23.69	17.49	10.05	6.206	4.591	3.784	3.000	1.937	1.673	1.700	1.500	1.869
555.0	60.84	63.33	-10.50	34.71	21.18	19.57	2.844	7.515	6.988	4.675	7.790	16.84	8.723	27.32	218.2	9999.9	9999.9	795.8	28.02	22.45	16.03	14.49	13.28	11.95	14.01	15.00	15.51	13.66	12.14	11.64	10.31	9.163	6.909	5.390	6.696	5.751	4.074	3.465	2.957	2.621	2.996	2.358	2.813	2.832	4.282	5.943	9.230	14.10	22.38	25.45	21.24	15.89	10.81	5.975	3.987	4.142	3.173	1.784	1.782	1.369	1.382
560.0	16.78	33.78	34.43	5.991	13.75	-4.968	15.19	9.132	-1.608	7.496	5.750	12.33	14.16	24.57	45.00	 3193	9999.9	9999.9	37.30	20.51	16.30	11.79	13.40	11.57	9.492	11.90	14.69	11.82	11.94	10.62	9.716	7.920	7.957	6.895	5.565	3.931	4.152	4.259	2.725	2.627	2.184	1.887	2.963	2.737	2.215	3.612	6.109	9.074	14.23	24.12	27.12	21.93	15.13	10.44	6.777	4.171	3.532	2.997	1.929	1.595	1.338
565.0	25.43	-11.45	14.20	-13.99	15.53	6.107	-10.46	20.44	7.544	9.833	8.538	8.003	27.31	26.57	36.05	240.0	9999.9	9999.9	718.8	28.30	19.25	16.46	16.09	12.35	11.33	11.12	10.75	12.77	10.42	10.77	10.35	9.692	8.749	7.936	5.445	4.549	3.694	2.886	3.200	1.961	1.880	1.828	2.161	1.930	2.351	2.009	4.125	6.291	8.975	14.36	25.75	23.69	21.80	16.32	10.30	5.657	3.537	2.601	2.464	2.866	0.629
570.0	10.87	-26.84	43.68	38.02	19.56	13.05	0.715	12.27	4.849	6.327	15.02	14.02	18.89	27.35	32.16	50.54	 2619	9999.9	9999.9	39.98	20.95	17.78	14.69	14.89	11.21	9.601	8.654	12.23	10.27	9.575	11.82	10.70	7.973	5.495	6.464	6.280	4.041	2.881	3.921	2.648	2.098	2.199	2.556	2.574	1.993	1.761	2.051	2.777	5.719	8.320	13.06	20.10	24.37	18.42	13.55	9.241	5.271	4.475	2.618	1.966	1.342
575.0	70.39	3.785	-33.78	15.27	22.64	5.608	7.721	9.343	8.984	19.39	10.45	13.06	22.04	29.26	48.45	57.69	234.6	9999.9	9999.9	680.2	24.24	21.40	15.21	12.94	8.770	11.03	8.333	8.761	11.50	10.33	11.11	9.328	9.879	8.605	6.215	7.485	5.098	4.318	2.916	3.121	1.838	2.305	1.592	1.588	1.514	1.380	2.028	2.058	4.721	5.385	7.629	11.64	20.54	22.75	17.21	14.54	8.445	5.485	3.440	1.924	1.808
580.0	5.258	68.34	-4.176	-3.842	-1.259	0.079	6.071	11.84	5.855	11.31	8.449	13.68	28.06	41.05	60.82	68.76	92.50	 2515	9999.9	 8914	34.09	23.24	17.25	18.04	12.31	8.569	9.431	8.174	8.130	9.120	8.994	9.404	9.293	9.057	8.137	7.262	4.615	4.417	4.820	2.989	2.566	2.006	2.242	1.952	2.039	2.682	2.220	2.098	2.005	2.697	5.481	7.574	11.33	19.72	19.87	17.09	13.35	8.513	4.320	3.490	2.833
585.0	9.492	-1.150	39.56	10.68	-11.97	28.33	11.97	13.15	12.85	19.56	19.79	29.09	46.68	47.39	73.81	101.8	109.2	259.1	9999.9	9999.9	550.0	23.58	19.73	15.18	12.43	7.612	11.34	8.557	8.732	7.648	7.369	8.177	8.412	9.139	8.218	7.151	6.235	6.677	4.543	3.034	2.424	2.096	2.037	2.446	1.967	2.474	3.105	1.963	2.658	2.026	3.319	4.210	7.212	10.30	18.79	18.10	16.38	12.22	6.693	6.132	3.117
590.0	20.37	25.26	55.40	-4.816	8.809	2.321	10.35	31.84	27.95	16.27	20.73	40.64	55.84	70.56	96.94	133.0	154.9	147.0	 2385	9999.9	 8002	36.01	18.73	15.50	13.78	12.33	10.12	11.70	11.01	8.505	9.342	9.281	8.269	8.952	8.877	8.390	7.553	6.598	4.942	3.780	3.708	2.321	2.045	3.176	3.244	5.389	5.145	3.537	2.170	1.961	2.443	3.057	4.546	7.032	9.876	17.07	21.48	17.40	12.83	7.164	5.626
595.0	38.06	19.81	42.10	11.17	1.712	24.14	29.55	15.88	33.65	16.87	36.52	41.15	79.70	108.2	142.7	174.1	182.8	191.0	281.7	9999.9	9999.9	626.8	27.93	20.81	15.27	12.94	12.54	9.015	9.239	10.81	9.788	8.151	11.56	9.264	9.890	9.520	6.776	7.777	6.018	4.815	4.823	3.251	2.929	2.873	3.975	6.224	7.599	5.286	2.359	1.689	2.504	2.455	3.594	4.488	6.189	8.579	15.94	19.62	16.69	11.27	9.137
600.0	-13.35	14.28	9.722	-27.58	25.31	10.71	35.72	43.97	30.69	27.83	37.93	55.57	91.93	125.7	158.8	207.3	238.7	233.0	209.3	 2175	9999.9	 8266	29.27	19.02	15.17	14.64	12.19	10.16	11.13	8.397	7.588	8.607	9.132	7.942	8.968	6.618	6.584	4.230	5.046	4.904	6.002	4.284	3.857	2.177	4.632	5.891	5.281	3.819	2.633	1.568	3.058	1.677	2.437	3.182	5.005	5.330	9.061	16.97	21.10	18.42	12.46
605.0	6.499	-16.52	22.70	13.35	32.11	24.88	17.47	44.91	29.80	33.45	46.65	66.11	103.5	152.2	200.8	238.8	267.9	269.0	245.9	330.8	9999.9	9999.9	598.2	21.35	16.23	13.21	11.75	11.63	7.791	9.360	6.612	6.668	7.311	6.836	6.365	6.771	4.983	3.614	4.595	3.911	6.004	4.656	3.531	3.481	2.303	3.531	3.207	1.368	2.086	1.280	2.506	2.013	2.725	2.962	2.581	3.996	5.465	9.273	16.87	21.71	17.33
610.0	5.883	53.30	44.23	-5.355	40.38	34.80	36.65	38.97	32.13	39.76	56.90	78.05	123.9	174.9	232.6	278.5	318.8	327.4	303.9	272.8	 2238	9999.9	 7928	29.64	17.87	12.53	13.59	10.74	8.447	6.965	8.189	7.954	7.673	7.427	6.709	4.469	5.267	3.987	3.248	3.357	3.368	2.894	3.269	2.033	2.134	2.132	2.545	2.114	1.681	1.218	1.860	0.881	1.090	1.184	1.742	2.290	3.323	5.776	9.758	16.51	21.33
615.0	-15.13	68.69	-19.62	30.22	11.76	25.13	41.74	39.77	33.86	38.40	47.21	91.25	138.6	200.1	258.1	314.7	352.3	360.1	347.8	300.9	329.6	9999.9	9999.9	580.0	19.88	15.71	10.57	10.33	9.603	8.396	6.506	5.575	7.289	7.119	5.920	5.272	3.713	4.142	4.162	3.054	3.566	3.770	2.908	2.086	2.676	2.717	2.070	1.291	1.162	1.330	1.066	1.037	0.834	1.500	1.670	1.344	2.206	3.576	4.431	9.377	17.01
620.0	64.00	40.95	3.056	43.46	12.05	34.20	50.58	53.68	43.18	37.19	54.85	96.09	160.6	212.3	281.4	327.6	381.0	391.1	382.1	348.8	236.3	 2044	9999.9	 7081	29.91	15.78	12.62	11.34	9.641	8.456	9.045	6.357	6.572	6.823	5.422	6.134	3.978	3.872	3.185	2.431	2.562	3.431	2.736	2.568	1.794	2.386	2.127	2.388	1.166	1.710	1.374	0.681	1.688	1.350	1.760	1.475	2.008	2.121	2.971	6.466	8.767
625.0	64.43	47.17	87.46	15.85	25.11	23.41	40.24	33.62	36.19	39.45	74.15	83.97	157.9	212.0	288.8	335.9	393.6	386.5	432.9	377.8	248.2	239.4	9999.9	9999.9	342.6	15.76	11.98	10.28	10.63	9.165	8.799	9.862	6.696	6.100	5.162	5.679	4.317	4.037	2.797	3.559	2.375	3.000	3.933	3.107	3.204	3.221	2.694	2.143	2.790	1.598	2.083	0.874	0.622	1.255	1.758	2.131	2.104	1.266	2.837	3.069	7.968
630.0	51.96	-24.24	53.30	26.18	39.82	33.78	48.29	31.12	31.34	44.47	73.73	103.1	153.5	200.3	283.3	328.0	389.6	405.1	414.0	382.8	260.4	135.2	 1912	9999.9	 5275	22.91	12.52	10.31	8.136	8.082	6.904	7.952	7.689	6.796	5.719	4.701	4.011	3.259	2.318	2.537	1.223	3.003	2.563	3.575	3.840	3.098	4.244	2.345	1.901	1.955	1.429	1.189	1.379	1.013	0.810	1.639	1.475	1.823	2.649	2.273	4.531
635.0	23.41	-37.25	42.99	59.22	13.74	23.82	39.75	47.74	32.48	44.14	50.12	94.49	152.0	207.7	281.3	341.2	373.3	411.3	409.3	403.2	267.7	119.1	166.6	9999.9	9999.9	285.1	17.75	13.56	10.69	9.826	6.919	8.167	6.892	5.655	6.188	7.307	3.388	3.503	2.113	2.137	2.428	2.520	2.256	2.698	2.847	4.149	4.096	3.084	1.902	1.656	1.610	1.347	1.870	1.487	1.250	1.320	1.530	1.376	2.560	2.346	2.955
640.0	50.50	18.20	32.06	102.2	28.50	47.14	60.85	36.06	40.14	59.16	62.80	75.28	142.2	199.8	254.8	319.7	372.1	396.2	403.3	385.8	257.5	123.6	49.99	 1737	9999.9	 4503	19.69	10.25	9.876	9.637	8.934	6.193	6.675	6.854	5.677	4.222	4.118	3.255	2.710	2.767	2.126	2.223	1.844	2.810	2.374	3.276	3.852	2.940	2.216	1.740	2.372	1.996	1.492	1.657	1.555	1.548	1.714	1.863	2.248	1.422	2.363
645.0	13.46	33.56	-19.94	107.2	41.45	44.86	22.84	36.13	42.79	42.37	57.87	85.61	129.4	196.2	231.1	285.5	339.9	367.8	374.0	349.8	250.0	112.9	43.83	135.0	 8804	9999.9	226.0	15.76	9.633	9.032	7.079	8.327	8.113	5.231	4.789	4.748	3.778	3.875	3.420	2.021	2.250	1.916	2.173	2.730	2.823	3.041	5.062	4.309	2.829	2.290	1.850	1.881	1.806	1.780	1.288	1.241	1.217	1.279	1.065	1.124	1.236
650.0	-0.641	-15.51	17.79	76.19	74.46	14.38	27.46	34.77	27.43	36.11	44.64	72.60	130.0	187.2	226.2	263.3	300.0	334.4	341.5	323.7	238.3	109.5	40.28	27.37	 1449	9999.9	 3298	14.73	10.24	10.67	7.734	5.219	7.214	6.967	5.574	4.365	5.231	4.408	3.118	2.649	1.892	2.431	2.248	1.892	2.630	2.351	3.207	2.459	3.070	3.177	2.345	1.170	1.587	1.566	1.154	1.147	1.376	0.234	1.287	1.266	1.274
655.0	-5.395	42.47	-11.15	63.18	177.4	41.63	19.30	17.55	20.82	22.10	35.83	71.34	111.4	155.2	208.3	233.5	295.0	290.1	326.2	301.8	214.9	100.9	38.60	17.76	110.4	 6852	9999.9	162.2	12.11	8.994	8.196	5.808	5.799	6.133	4.764	4.870	4.725	4.187	2.369	2.507	1.620	1.039	1.046	1.326	0.882	3.029	2.541	3.443	1.632	1.896	2.464	1.981	1.724	2.137	1.061	1.108	1.295	0.504	0.945	0.618	0.833
660.0	-13.32	-5.998	-1.733	24.53	155.8	24.77	19.35	32.03	19.80	25.89	37.31	62.73	90.13	149.2	177.5	210.1	257.0	283.4	291.2	280.8	183.0	98.22	36.08	15.73	18.88	 1092	9999.9	 2577	12.89	10.69	7.436	6.756	6.533	4.627	4.603	4.288	4.303	3.555	2.799	2.556	2.323	1.983	1.104	1.397	0.933	1.491	3.002	1.698	2.739	1.534	1.947	1.774	1.411	1.901	2.090	1.492	1.825	1.289	0.987	0.478	1.074
665.0	-5.468	32.78	8.919	-12.19	175.9	70.95	10.77	20.64	23.83	40.20	34.12	60.28	91.82	115.2	172.5	189.7	222.0	243.6	263.7	250.2	183.6	88.08	32.37	16.26	13.86	82.10	 6013	 8321	99.54	10.66	8.008	6.908	7.240	5.998	5.514	4.839	3.270	2.403	2.585	2.122	1.788	1.203	0.793	1.337	1.489	1.435	1.846	0.767	2.236	2.698	1.973	2.465	2.431	2.394	2.460	1.582	1.089	2.131	1.631	1.210	0.798
670.0	41.29	-14.91	23.36	24.85	81.53	165.0	10.61	10.93	18.65	17.81	24.36	54.62	79.08	108.3	127.4	179.5	178.9	204.2	238.0	217.8	163.5	77.17	30.77	14.20	9.260	16.25	 1050	 9904	 1767	13.14	7.010	7.260	6.906	6.139	4.609	3.401	4.997	2.951	3.450	2.975	1.785	0.975	1.284	1.699	1.268	1.270	1.285	0.798	1.147	2.141	1.634	1.671	1.660	2.426	1.504	1.048	1.450	1.449	0.798	1.222	0.941
675.0	-18.69	-11.70	-4.181	0.849	7.079	175.0	26.98	8.949	14.87	17.49	23.96	35.40	68.68	91.60	122.6	164.0	177.8	173.0	199.3	175.6	142.9	67.47	28.02	12.59	9.901	9.131	78.08	 4790	 6141	90.44	11.82	7.611	6.377	5.880	6.034	5.193	3.475	2.242	3.550	2.694	2.132	2.220	1.951	1.435	0.352	1.877	1.562	1.475	1.375	0.933	1.996	1.866	1.787	1.242	1.950	1.276	1.010	0.827	1.206	1.566	0.777
680.0	7.996	6.360	1.173	14.17	4.180	205.6	122.7	18.16	9.448	18.73	15.91	36.02	52.68	78.02	105.2	125.3	142.4	161.7	175.4	167.8	118.7	58.34	24.42	10.95	10.71	6.147	13.00	803.9	 7783	 1469	10.90	6.772	5.508	5.560	4.796	4.565	3.402	3.010	3.520	3.351	1.689	1.296	0.839	1.806	0.487	0.827	1.119	-0.182	1.275	1.466	1.913	3.184	1.140	1.406	2.137	1.144	1.799	1.086	2.192	0.380	1.580
685.0	44.35	20.93	27.43	1.761	11.01	130.6	201.2	12.30	11.99	20.63	14.73	36.59	48.24	66.85	95.49	95.14	126.0	140.6	139.4	148.9	105.8	53.52	23.52	8.742	9.716	8.293	6.849	59.23	 4045	 4976	78.57	6.538	7.047	5.053	3.853	3.267	2.548	3.651	1.832	2.070	2.090	1.421	0.796	1.398	0.988	0.069	0.909	1.294	0.722	0.673	0.535	3.962	1.887	1.278	2.252	1.145	1.925	1.238	1.293	1.275	1.383
690.0	18.08	-38.95	-18.06	-17.42	3.785	34.23	289.1	58.08	6.448	9.825	14.10	28.45	41.96	55.97	81.52	90.04	104.1	118.4	122.2	123.4	93.97	51.00	20.92	8.836	8.596	7.306	6.408	10.37	752.7	 6147	 1199	8.640	7.292	6.838	4.656	3.995	4.139	2.148	1.864	1.656	2.341	1.566	1.751	1.328	1.194	1.152	0.395	1.490	0.822	0.544	0.616	1.279	4.129	1.869	1.326	1.730	2.290	0.868	0.480	1.788	0.863
695.0	5.841	34.70	-11.46	8.990	-0.508	7.359	231.7	125.1	14.19	12.79	18.93	16.73	38.66	51.81	66.84	84.26	80.56	99.96	109.2	101.8	76.67	44.10	19.61	10.90	8.588	5.639	6.153	6.282	57.97	 2960	 3888	59.79	5.812	5.137	3.566	3.299	2.598	3.326	1.750	1.687	2.196	1.267	1.103	1.302	0.248	0.707	1.512	0.849	1.172	0.414	0.140	1.095	1.737	2.990	1.042	1.133	1.163	1.913	2.253	1.909	0.681
700.0	-3.649	-11.51	28.57	1.532	2.749	-3.097	169.9	297.8	19.02	7.520	21.92	21.36	30.64	42.59	60.64	67.97	77.61	80.74	90.08	83.29	63.62	38.02	16.34	7.958	5.082	8.322	6.268	6.058	10.94	508.6	 4842	898.2	8.927	6.696	4.484	4.489	3.234	2.390	2.157	2.615	1.065	1.062	0.519	1.438	1.224	0.698	1.268	0.810	0.676	0.846	0.746	0.366	1.115	3.103	1.962	0.675	0.602	1.431	1.546	1.810	1.539
705.0	21.74	-49.34	38.39	-2.865	-10.48	9.085	43.27	378.8	49.95	14.04	11.63	14.38	22.61	33.77	50.21	54.60	67.03	70.74	74.17	77.07	63.97	38.82	17.42	10.12	6.247	5.836	6.321	5.465	5.681	39.55	 2407	 3135	42.54	7.992	4.708	4.382	3.625	2.535	1.683	2.056	1.229	1.777	0.529	0.965	0.298	1.348	0.513	1.018	0.743	0.915	0.514	0.181	1.104	1.175	4.296	1.856	0.287	1.400	1.145	1.211	1.896
710.0	25.96	3.552	20.20	-10.73	-10.13	4.899	16.63	347.1	173.5	12.29	7.128	13.89	23.04	32.60	37.37	47.60	56.65	53.56	63.78	61.78	49.15	27.84	15.65	9.032	7.991	5.011	6.156	6.497	4.996	8.292	425.8	 3892	661.6	5.839	4.403	2.932	3.732	2.744	1.609	2.088	0.899	1.086	0.941	1.186	0.143	0.220	0.893	0.491	0.676	0.930	0.734	0.488	0.481	0.874	2.739	3.533	0.828	0.787	0.828	1.355	1.187
715.0	14.07	15.09	4.598	-8.148	24.19	27.23	13.19	169.4	348.8	9.357	9.112	12.10	10.50	21.52	25.90	46.21	52.39	43.68	56.20	55.97	43.98	26.84	14.89	12.06	7.494	5.919	4.660	4.920	3.781	4.020	33.50	 1995	 2402	36.42	4.414	3.559	2.546	1.750	1.956	1.798	1.817	0.929	1.019	1.626	0.275	1.531	0.683	0.348	0.108	0.497	0.737	0.181	0.767	1.048	0.929	4.550	1.765	0.551	0.807	0.800	1.098
720.0	25.36	-16.83	25.67	5.705	-5.684	-1.960	5.725	53.11	479.8	89.17	12.73	13.67	12.82	20.02	31.46	32.07	34.78	38.88	41.08	45.70	37.73	24.25	12.57	10.41	12.30	5.531	6.124	4.591	5.321	4.959	6.225	374.3	 3203	513.6	5.964	4.559	3.068	2.687	1.596	2.179	2.080	1.349	1.340	0.098	1.190	1.902	0.452	0.345	0.646	0.454	0.284	0.921	0.512	0.554	0.584	1.966	5.900	1.845	0.394	0.636	0.535
725.0	9.065	-12.74	-25.85	-9.600	3.472	-0.760	10.28	9.289	413.5	244.1	5.984	8.262	16.37	15.97	19.16	27.55	31.20	30.38	35.27	42.32	31.37	22.18	12.02	10.52	11.54	8.366	5.093	4.388	4.824	3.565	4.894	28.98	 1731	 1992	31.24	5.403	3.673	2.209	2.185	1.649	1.996	1.353	0.443	1.151	0.176	1.238	0.712	0.745	0.658	0.818	0.316	0.979	0.903	0.326	0.743	0.676	3.467	5.464	0.784	0.330	0.501
730.0	-15.27	-11.13	9.295	16.88	-8.251	12.31	2.964	5.560	229.9	429.5	15.02	4.198	15.28	13.92	20.17	23.98	26.50	29.85	38.38	34.62	25.65	18.12	11.38	7.405	9.704	9.520	4.934	5.277	4.829	3.654	4.409	5.360	366.3	 2693	397.2	5.018	3.693	2.795	2.955	2.070	1.087	1.667	1.193	1.496	1.266	0.674	-0.105	0.920	0.193	0.488	0.818	0.287	0.614	0.663	0.582	0.668	0.801	5.336	2.693	0.636	0.762
735.0	-5.228	-23.95	-8.998	35.17	-3.231	-10.64	7.765	4.953	46.63	574.9	93.37	3.112	10.64	16.24	22.90	18.33	23.28	32.25	27.31	26.72	21.95	16.08	11.19	6.615	7.083	8.866	5.981	4.392	3.483	2.516	3.551	4.043	31.99	 1458	 1565	23.20	3.670	2.268	1.317	1.994	1.048	0.837	1.511	0.413	0.773	0.943	0.838	0.160	0.654	0.552	0.608	0.831	0.533	0.709	0.336	0.564	0.815	1.578	7.662	2.377	0.461
740.0	-7.563	1.649	-8.040	-19.53	-6.709	-13.30	2.447	-6.467	0.124	505.1	308.1	5.609	10.88	11.84	14.48	21.37	14.56	20.62	28.05	27.13	19.48	17.65	10.48	7.952	7.242	8.134	7.748	6.519	3.501	3.102	4.108	3.677	6.415	300.6	 2216	314.8	4.677	2.219	1.459	2.002	1.791	1.160	0.757	0.146	0.505	0.658	0.165	0.668	1.090	0.545	0.389	0.753	0.506	0.486	0.090	0.555	0.199	0.542	4.368	6.441	1.021
745.0	10.85	23.27	8.573	15.30	-0.463	-11.56	0.032	7.815	-3.359	277.2	556.7	17.11	5.941	11.84	15.06	19.36	14.99	20.64	18.74	21.72	16.59	13.65	8.812	8.124	7.274	7.709	7.854	5.116	4.584	3.662	2.803	3.179	4.059	25.15	 1265	 1236	16.89	3.002	2.369	1.547	1.476	0.959	0.800	0.715	0.858	0.914	0.424	0.467	0.338	0.040	0.315	0.687	-0.114	0.590	0.565	0.095	0.266	0.473	1.107	8.205	4.436
750.0	-1.843	-30.96	-25.53	1.213	-5.591	-9.229	1.571	2.566	2.308	69.60	719.8	110.2	4.949	10.18	10.16	17.59	16.00	18.23	17.10	18.90	15.10	8.985	9.748	7.849	6.746	6.605	5.795	8.334	3.419	3.027	2.415	3.319	2.354	5.673	279.1	 1751	211.2	2.593	2.245	3.247	0.703	0.511	0.326	0.952	1.108	0.479	0.370	0.858	1.070	-0.132	0.306	0.475	0.604	0.379	0.627	0.609	0.120	0.301	0.178	2.162	11.13
755.0	-63.65	-32.06	1.760	6.392	-1.274	1.851	8.106	0.270	-0.305	8.403	636.4	335.8	10.31	3.649	11.21	12.04	11.91	13.14	14.06	14.95	13.01	9.096	8.247	7.380	6.780	6.587	6.163	6.403	3.137	3.496	3.420	2.739	3.260	3.122	26.07	 1063	914.9	12.57	0.664	1.045	2.528	1.185	0.804	1.257	0.737	0.846	1.210	0.438	1.262	0.541	0.102	0.384	0.571	0.700	0.826	0.440	0.555	0.351	0.723	0.768	6.817
760.0	29.98	-8.019	14.24	-23.81	27.72	9.662	1.018	15.78	-2.034	-1.714	360.8	743.5	25.21	4.634	8.784	12.61	10.68	8.593	12.74	14.60	10.20	9.188	7.675	6.809	5.885	5.884	6.217	6.459	7.055	4.056	3.536	3.187	2.378	1.918	3.863	252.1	 1436	154.6	2.289	1.737	2.104	1.882	0.776	1.126	0.952	0.255	0.069	0.272	0.442	0.346	0.315	0.058	0.414	0.226	0.589	0.241	0.369	0.425	-0.025	0.102	2.225
765.0	-21.19	21.60	-3.892	-13.85	-4.606	-5.479	4.407	1.624	0.682	1.379	104.8	934.6	127.4	8.508	5.562	9.654	7.822	10.19	11.90	11.59	8.407	8.917	6.672	5.291	5.857	7.033	6.076	5.926	6.726	4.703	2.645	2.337	2.989	2.829	2.620	22.59	912.3	716.8	8.171	1.794	2.027	2.027	1.634	0.624	0.399	0.290	1.056	0.273	0.461	0.612	0.616	1.064	0.095	0.230	0.468	0.197	0.043	0.540	-0.149	0.027	0.281
770.0	-10.52	-28.51	13.89	-12.01	-30.46	8.706	4.973	-5.813	1.742	1.835	8.440	781.8	390.0	11.41	7.656	8.262	8.867	8.456	10.08	11.33	7.981	5.212	7.084	4.933	8.306	7.140	5.131	3.732	5.257	4.485	3.300	1.777	3.291	3.080	3.681	4.160	233.5	 1130	113.7	2.031	1.174	1.205	1.233	1.460	0.310	0.083	0.539	0.857	0.448	0.557	0.760	0.139	1.110	0.160	0.467	-0.198	0.174	0.387	0.399	0.439	0.110
775.0	-23.33	-18.91	10.10	-16.21	5.387	-12.59	-9.581	-5.293	-4.615	0.588	3.339	432.9	839.4	27.71	4.784	3.554	7.686	9.785	9.217	6.886	6.165	5.882	5.538	4.986	4.429	5.005	5.121	3.650	5.526	5.083	4.326	2.625	4.088	2.885	2.496	2.589	21.37	757.9	551.6	7.516	1.918	1.113	1.356	0.915	0.800	0.401	1.085	0.560	0.289	0.482	1.411	0.820	0.252	0.446	0.458	0.584	0.515	0.137	0.438	0.986	0.095
780.0	-8.710	-20.69	17.65	-0.489	-7.035	0.104	1.725	6.344	-3.078	-1.396	0.932	118.2	 1150	143.8	5.814	3.773	8.621	8.571	8.359	8.171	6.871	5.954	3.651	3.547	5.476	6.730	6.158	5.838	3.304	4.295	3.392	2.669	2.092	1.921	1.985	2.114	2.436	212.3	924.6	82.47	1.451	0.652	0.764	0.740	0.696	0.201	0.702	1.040	-0.031	0.579	0.517	0.428	-0.035	0.272	0.514	0.562	0.252	0.429	0.336	0.148	0.741
785.0	-16.02	9.191	19.31	3.511	-4.859	-21.49	4.745	10.16	0.217	4.308	-0.465	12.00	 1034	511.3	3.145	3.190	6.131	6.498	6.626	5.961	5.258	3.121	5.120	3.255	3.343	5.508	4.680	3.496	4.157	3.503	3.742	3.275	1.128	1.303	2.714	3.437	2.273	20.69	677.7	411.4	6.257	1.444	1.217	0.649	0.087	0.144	0.640	0.180	0.110	1.351	0.642	0.089	-0.009	1.167	0.517	0.367	-0.065	0.152	0.350	0.975	0.177
790.0	-10.04	-13.23	7.253	-18.49	-5.440	2.978	1.221	0.652	-9.106	-1.342	2.718	4.638	571.8	979.5	24.76	5.140	4.911	6.222	6.558	4.956	3.435	3.975	4.689	3.108	4.627	4.799	5.482	3.634	4.832	3.645	4.285	3.100	2.701	2.113	2.336	2.012	1.405	3.185	207.7	773.7	60.23	1.647	0.652	0.686	0.643	0.607	0.682	0.329	-0.095	0.308	0.671	-0.117	0.638	0.609	-0.037	0.077	0.134	0.371	0.556	0.658	0.517
795.0	-61.18	-7.714	12.45	-19.30	-23.37	-3.760	-3.935	1.028	1.462	-0.705	0.916	2.565	185.5	 1366	144.1	5.672	5.165	4.374	6.798	3.238	3.693	4.950	3.302	2.934	4.240	4.624	5.089	3.594	4.502	3.122	4.534	2.671	1.955	1.567	2.942	0.969	1.850	2.071	23.20	600.7	347.7	4.186	0.692	0.939	1.134	0.324	0.778	0.531	0.650	-0.103	0.306	0.444	0.233	-0.071	0.436	0.645	0.897	0.074	-0.208	0.184	-0.121
800.0	4.061	-7.088	-42.60	4.942	-3.883	-2.813	5.161	-1.538	-4.837	-1.976	3.069	-0.429	26.64	 1214	529.9	8.300	8.470	5.648	6.539	4.793	6.033	4.735	2.885	3.732	3.575	3.633	3.454	4.722	4.304	2.993	3.929	3.013	3.362	2.096	2.625	2.525	1.006	2.682	2.794	205.0	664.9	41.01	1.463	0.964	0.861	0.593	0.110	0.588	0.399	0.834	0.351	0.085	0.025	0.124	0.227	0.195	0.718	0.323	0.385	1.372	0.942
805.0	-1.712	-32.17	-7.502	-18.01	-21.11	-0.855	-0.306	-4.178	-4.928	-0.510	1.259	1.261	4.504	809.6	 1060	27.98	6.829	7.358	5.132	5.560	4.522	3.914	3.641	4.584	3.651	2.547	3.623	3.621	3.396	3.604	3.430	2.720	4.193	3.005	2.007	0.751	2.080	0.845	1.204	24.97	538.3	255.9	3.662	0.976	0.906	0.105	0.088	0.318	0.814	0.159	0.406	0.213	0.860	0.442	0.010	0.228	0.205	0.152	0.598	0.916	0.774
810.0	4.943	21.36	-40.25	36.17	-16.98	12.18	-0.590	-3.341	-2.118	0.789	3.099	-0.404	3.166	281.3	 1518	147.5	4.923	5.718	4.428	5.328	4.436	4.227	2.952	3.119	3.618	3.526	3.159	3.236	4.160	4.232	3.066	2.208	3.272	3.643	2.036	1.890	2.038	0.429	0.899	2.772	199.2	543.9	24.46	1.538	1.573	0.605	0.364	0.262	-0.144	-0.048	0.465	0.162	0.521	0.018	0.604	0.131	0.263	0.036	0.270	0.803	0.838
815.0	40.85	-8.105	8.830	-21.64	1.497	2.357	-5.492	3.860	3.845	-3.126	3.835	0.395	1.155	46.11	 1407	529.1	7.134	3.874	4.302	3.838	3.934	2.559	1.999	3.605	2.405	3.288	2.734	2.644	3.076	3.228	4.573	3.924	3.074	2.391	1.742	1.166	1.285	0.936	1.031	1.410	26.11	496.9	205.7	2.540	1.327	0.505	0.853	0.441	0.653	0.134	0.384	0.154	0.601	0.106	0.621	-0.204	0.173	0.528	-0.105	0.504	0.502
820.0	38.51	-61.48	-19.12	-3.115	-12.59	14.62	7.900	1.984	-2.394	-1.521	-0.070	5.507	5.092	6.224	952.4	 1160	27.48	4.377	2.705	6.299	4.812	3.670	2.228	4.770	3.455	3.487	2.840	1.922	3.011	3.258	2.999	3.732	1.936	1.579	3.243	2.049	1.103	2.074	0.984	1.125	2.909	189.1	474.7	20.19	0.824	0.934	0.828	0.415	0.776	0.364	0.843	0.639	0.264	-0.125	0.367	0.199	0.419	0.234	0.387	0.036	0.224
825.0	18.45	48.49	13.90	4.134	-9.968	-13.34	9.997	-2.544	6.085	1.319	1.478	0.697	2.214	1.999	369.1	 1599	146.5	5.238	3.094	5.557	2.710	1.586	3.752	2.163	2.322	4.869	2.906	2.042	3.421	2.652	2.813	2.736	2.663	2.669	1.680	1.392	1.440	1.373	1.287	1.315	0.548	23.87	467.4	175.5	1.892	1.111	0.810	0.723	0.148	0.522	0.616	0.151	0.434	0.412	0.435	0.178	0.627	0.390	0.230	0.100	0.122
830.0	3.399	27.83	-0.670	13.17	-12.80	-15.80	3.295	-10.32	1.182	-3.900	-3.239	-1.266	1.368	4.918	69.10	 1569	536.0	4.767	4.284	3.834	2.537	3.450	2.445	2.522	3.507	2.780	2.887	2.816	1.561	2.606	2.840	2.788	3.114	2.437	2.720	2.480	0.628	0.740	0.894	0.262	0.535	2.341	186.9	435.2	14.84	0.835	0.295	0.205	0.112	0.284	0.621	0.412	0.805	0.551	0.351	0.272	0.643	0.671	-0.020	0.070	-0.187
835.0	-3.590	35.92	-15.62	-0.058	-14.11	-7.695	-5.493	-5.789	-3.985	-0.911	1.009	0.544	0.592	6.640	7.353	 1031	 1129	29.38	4.238	2.749	3.929	2.977	2.043	2.896	2.533	2.761	2.468	2.761	1.915	1.448	1.005	3.802	3.148	2.154	2.404	1.503	1.764	0.807	0.712	0.997	0.647	1.558	25.92	423.0	137.9	1.573	0.194	0.727	0.233	0.029	0.062	0.588	1.035	0.880	0.447	0.204	0.330	0.193	0.475	0.230	0.506
840.0	13.17	-29.66	0.416	2.159	-4.060	-10.42	-8.760	-3.904	-7.125	0.837	-3.530	-1.416	3.295	0.862	5.358	423.1	 1591	152.4	2.882	4.370	3.493	3.305	3.037	2.411	3.215	1.534	2.020	1.659	1.780	1.463	2.322	2.551	2.314	2.677	2.941	2.439	2.813	0.622	0.962	1.134	0.137	0.688	2.915	186.2	385.3	15.48	0.463	0.777	0.670	0.163	-0.040	0.279	0.818	0.098	0.113	0.141	0.271	0.263	0.295	-0.233	-0.170
845.0	23.09	33.24	18.52	-7.775	-4.742	8.231	-9.343	1.060	4.175	1.005	0.707	0.152	-0.681	3.954	2.725	79.71	 1608	507.9	5.528	3.397	1.965	2.114	4.405	2.522	2.516	0.588	3.305	2.665	2.149	2.512	1.613	2.170	2.252	3.158	2.126	1.681	2.912	1.141	1.104	1.319	1.149	0.851	0.594	25.54	404.8	134.1	0.591	0.902	0.341	0.984	0.433	0.745	0.610	0.473	-0.366	0.800	0.296	-0.031	0.395	0.174	0.982
850.0	-17.75	-35.30	-3.819	16.59	-1.015	-3.905	-10.59	-2.691	-0.345	0.950	6.055	1.195	0.493	3.980	1.560	13.48	 1070	 1057	25.50	4.358	3.424	1.630	2.796	4.346	2.973	2.198	2.650	2.483	1.094	1.420	0.754	1.018	1.765	2.352	2.444	2.466	2.063	0.728	0.777	0.663	0.824	0.304	0.746	2.108	178.0	352.5	8.558	0.630	0.573	0.310	0.269	0.375	1.052	0.537	0.229	0.568	0.535	0.119	0.363	0.269	-0.152
855.0	-5.397	18.48	31.81	-27.82	-0.158	3.587	0.362	2.394	2.662	1.549	-0.049	0.911	-0.627	4.569	0.918	4.850	474.7	 1534	127.9	2.330	3.266	3.976	3.381	3.532	3.473	3.077	2.442	2.512	0.832	1.824	0.943	1.009	1.671	2.247	2.096	2.390	2.075	0.759	0.873	0.660	0.216	0.845	0.325	0.690	31.02	397.7	108.2	1.204	0.632	0.710	-0.098	0.325	0.882	0.374	0.110	-0.319	0.296	0.777	0.302	0.359	-0.057
860.0	5.341	-13.82	9.414	-8.866	-1.604	5.163	1.310	-0.601	5.480	3.402	2.321	-2.071	-1.179	3.572	2.975	6.867	104.8	 1557	436.0	5.744	1.622	2.901	2.421	3.024	3.588	1.734	2.476	2.676	2.090	0.955	2.687	1.590	0.954	2.226	3.068	2.544	2.033	1.130	1.796	1.206	0.269	0.274	0.237	0.046	2.666	179.3	331.2	6.520	0.282	0.530	0.509	0.168	0.051	0.245	0.651	0.209	0.543	0.443	-0.185	-0.034	0.228
865.0	-40.65	14.77	-8.861	-15.41	-13.02	-1.243	-2.117	5.587	-7.517	0.114	-4.548	0.809	3.705	2.016	3.605	3.080	15.31	 1076	927.9	26.92	3.940	3.842	2.539	3.709	3.427	3.036	3.032	2.325	1.315	1.487	1.088	1.133	1.067	3.109	1.498	1.771	1.596	0.949	0.279	1.098	0.052	1.389	0.538	-0.018	1.171	29.59	397.3	84.52	0.836	0.887	0.142	0.109	0.276	0.221	0.336	0.289	0.462	0.384	-0.113	0.361	0.239
870.0	34.82	-18.85	-49.68	-2.781	3.222	4.245	2.057	8.573	2.750	-2.156	2.166	3.907	1.120	4.625	4.376	5.052	6.340	486.3	 1400	117.9	4.439	3.856	2.619	3.728	2.384	2.277	1.634	3.222	1.873	1.975	2.246	1.712	0.767	1.611	1.798	2.608	2.205	0.824	1.239	1.146	0.969	0.573	1.072	-0.098	0.627	2.538	191.0	319.4	7.351	-0.070	0.421	0.689	1.118	0.435	0.121	0.519	0.072	0.220	0.313	0.188	0.242
875.0	-1.887	13.38	33.74	19.82	21.35	-11.09	1.525	3.884	4.091	-0.579	4.119	-0.522	-1.868	7.736	5.135	8.646	5.172	125.3	 1473	384.9	5.898	2.945	5.125	3.815	3.330	2.542	4.272	1.710	3.372	1.541	1.215	1.092	1.345	2.000	1.795	0.850	1.886	1.304	1.263	0.764	0.450	0.380	0.215	0.320	0.860	1.208	33.00	408.6	88.83	0.705	0.753	0.424	0.074	0.105	0.655	0.341	0.099	-0.202	-0.143	0.437	0.476
880.0	-0.194	-30.11	-8.677	-6.596	22.59	7.766	3.705	10.35	2.862	4.678	2.166	-0.268	2.064	1.580	3.307	12.09	7.666	19.83	 1065	816.6	27.57	2.881	4.789	2.529	4.011	3.706	3.621	2.578	1.852	2.458	1.704	1.532	1.681	1.692	1.052	1.357	2.060	1.362	1.574	1.154	0.937	0.397	0.314	0.134	0.472	0.585	2.571	220.5	313.9	5.557	0.642	0.096	0.608	0.244	0.769	0.649	0.389	0.063	-0.017	0.971	0.186
885.0	-15.48	24.98	-10.27	5.596	40.33	-7.526	-6.081	-0.665	7.452	-0.400	3.206	-1.499	4.143	0.318	3.765	13.28	8.766	12.72	505.5	 1217	98.92	5.445	3.903	4.219	3.234	3.531	3.708	2.876	2.216	1.233	2.876	2.354	1.349	2.046	1.003	1.387	1.476	1.429	0.814	0.799	0.920	0.664	0.576	0.616	1.057	0.004	0.282	40.91	419.1	80.21	1.211	0.400	0.444	0.396	0.563	0.378	-0.097	0.491	-0.152	-0.057	-0.164
890.0	48.47	12.11	5.746	-22.44	33.80	1.585	7.659	12.71	-0.012	-1.114	3.255	-1.803	2.867	5.926	5.031	10.01	6.156	9.275	136.6	 1336	316.2	6.517	3.260	3.422	2.276	3.984	2.479	2.951	0.877	1.155	2.380	1.824	2.568	1.601	0.448	0.520	1.129	2.029	1.952	1.108	0.539	0.379	0.634	0.785	0.455	0.074	0.053	4.033	227.1	302.0	3.890	0.469	0.366	0.494	0.205	-0.065	0.393	0.506	-0.137	0.514	0.438
895.0	2.108	-15.12	9.606	13.25	30.10	12.66	2.220	-8.898	-4.492	2.368	-0.107	5.350	4.265	4.774	5.850	4.161	12.74	8.607	20.75	989.6	690.6	28.81	5.299	4.727	2.319	2.188	3.614	2.388	2.096	1.343	1.147	1.263	0.612	1.460	1.037	1.310	0.481	0.602	1.582	1.134	0.810	1.000	1.016	1.180	0.602	0.741	0.310	1.039	45.87	431.8	68.97	1.280	0.232	0.193	0.438	0.230	-0.003	0.193	0.479	0.246	0.236
900.0	-3.398	8.550	-28.93	-16.52	-7.524	38.69	2.906	-4.577	-0.839	2.196	3.031	0.120	0.805	4.145	9.840	7.314	10.03	11.68	10.84	504.5	 1085	87.07	4.516	4.246	3.182	3.440	3.010	3.007	3.798	2.047	2.448	3.537	1.598	1.101	1.083	1.088	0.623	1.335	0.508	2.011	0.335	1.235	0.397	0.142	0.504	0.578	0.775	0.739	3.502	257.0	303.3	3.120	0.575	0.759	0.508	0.471	0.026	0.003	0.339	0.315	0.535
